Time [d] (1.col)    z [m] (1.row)    Absorption [m-1] (rest)
1
-1          0.00
    0.0000 0.189
   45.0000 0.182
   73.0000 0.320
  104.0000 0.519
  134.0000 0.414
  165.0000 0.557
  195.0000 0.409
  226.0000 0.380
  257.0000 0.349
  287.0000 0.326
  318.0000 0.269
  348.0000 0.207
  379.0000 0.189
  410.0000 0.182
  438.0000 0.320
  469.0000 0.519
  499.0000 0.414
  530.0000 0.557
  560.0000 0.409
  591.0000 0.380
  622.0000 0.349
  652.0000 0.326
  683.0000 0.269
  713.0000 0.207
  744.0000 0.189
  775.0000 0.182
  803.0000 0.320
  834.0000 0.519
  864.0000 0.414
  895.0000 0.557
  925.0000 0.409
  956.0000 0.380
  987.0000 0.349
 1017.0000 0.326
 1048.0000 0.269
 1078.0000 0.207
 1109.0000 0.189
 1140.0000 0.182
 1169.0000 0.320
 1200.0000 0.519
 1230.0000 0.414
 1261.0000 0.557
 1291.0000 0.409
 1322.0000 0.380
 1353.0000 0.349
 1383.0000 0.326
 1414.0000 0.269
 1444.0000 0.207
 1475.0000 0.189
 1506.0000 0.182
 1534.0000 0.320
 1565.0000 0.519
 1595.0000 0.414
 1626.0000 0.557
 1656.0000 0.409
 1687.0000 0.380
 1718.0000 0.349
 1748.0000 0.326
 1779.0000 0.269
 1809.0000 0.207
 1840.0000 0.189
 1871.0000 0.182
 1899.0000 0.320
 1930.0000 0.519
 1960.0000 0.414
 1991.0000 0.557
 2021.0000 0.409
 2052.0000 0.380
 2083.0000 0.349
 2113.0000 0.326
 2144.0000 0.269
 2174.0000 0.207
 2205.0000 0.189
 2236.0000 0.182
 2264.0000 0.320
 2295.0000 0.519
 2325.0000 0.414
 2356.0000 0.557
 2386.0000 0.409
 2417.0000 0.380
 2448.0000 0.349
 2478.0000 0.326
 2509.0000 0.269
 2539.0000 0.207
 2570.0000 0.189
 2601.0000 0.182
 2630.0000 0.320
 2661.0000 0.519
 2691.0000 0.414
 2722.0000 0.557
 2752.0000 0.409
 2783.0000 0.380
 2814.0000 0.349
 2844.0000 0.326
 2875.0000 0.269
 2905.0000 0.207
 2936.0000 0.189
 2967.0000 0.182
 2995.0000 0.320
 3026.0000 0.519
 3056.0000 0.414
 3087.0000 0.557
 3117.0000 0.409
 3148.0000 0.380
 3179.0000 0.349
 3209.0000 0.326
 3240.0000 0.269
 3270.0000 0.207
 3301.0000 0.189
 3332.0000 0.182
 3360.0000 0.320
 3391.0000 0.519
 3421.0000 0.414
 3452.0000 0.557
 3482.0000 0.409
 3513.0000 0.380
 3544.0000 0.349
 3574.0000 0.326
 3605.0000 0.269
 3635.0000 0.207
 3666.0000 0.189
 3697.0000 0.182
 3725.0000 0.320
 3756.0000 0.519
 3786.0000 0.414
 3817.0000 0.557
 3847.0000 0.409
 3878.0000 0.380
 3909.0000 0.349
 3939.0000 0.326
 3970.0000 0.269
 4000.0000 0.207
 4031.0000 0.189
 4062.0000 0.182
 4091.0000 0.320
 4122.0000 0.519
 4152.0000 0.414
 4183.0000 0.557
 4213.0000 0.409
 4244.0000 0.380
 4275.0000 0.349
 4305.0000 0.326
 4336.0000 0.269
 4366.0000 0.207
 4397.0000 0.189
 4428.0000 0.182
 4456.0000 0.320
 4487.0000 0.519
 4517.0000 0.414
 4548.0000 0.557
 4578.0000 0.409
 4609.0000 0.380
 4640.0000 0.349
 4670.0000 0.326
 4701.0000 0.269
 4731.0000 0.207
 4762.0000 0.189
 4793.0000 0.182
 4821.0000 0.320
 4852.0000 0.519
 4882.0000 0.414
 4913.0000 0.557
 4943.0000 0.409
 4974.0000 0.380
 5005.0000 0.349
 5035.0000 0.326
 5066.0000 0.269
 5096.0000 0.207
 5127.0000 0.189
 5158.0000 0.182
 5186.0000 0.320
 5217.0000 0.519
 5247.0000 0.414
 5278.0000 0.557
 5308.0000 0.409
 5339.0000 0.380
 5370.0000 0.349
 5400.0000 0.326
 5431.0000 0.269
 5461.0000 0.207
 5492.0000 0.189
 5523.0000 0.182
 5552.0000 0.320
 5583.0000 0.519
 5613.0000 0.414
 5644.0000 0.557
 5674.0000 0.409
 5705.0000 0.380
 5736.0000 0.349
 5766.0000 0.326
 5797.0000 0.269
 5827.0000 0.207
 5858.0000 0.189
 5889.0000 0.182
 5917.0000 0.320
 5948.0000 0.519
 5978.0000 0.414
 6009.0000 0.557
 6039.0000 0.409
 6070.0000 0.380
 6101.0000 0.349
 6131.0000 0.326
 6162.0000 0.269
 6192.0000 0.207
 6223.0000 0.189
 6254.0000 0.182
 6282.0000 0.320
 6313.0000 0.519
 6343.0000 0.414
 6374.0000 0.557
 6404.0000 0.409
 6435.0000 0.380
 6466.0000 0.349
 6496.0000 0.326
 6527.0000 0.269
 6557.0000 0.207
 6588.0000 0.189
 6619.0000 0.182
 6647.0000 0.320
 6678.0000 0.519
 6708.0000 0.414
 6739.0000 0.557
 6769.0000 0.409
 6800.0000 0.380
 6831.0000 0.349
 6861.0000 0.326
 6892.0000 0.269
 6922.0000 0.207
 6953.0000 0.189
 6984.0000 0.182
 7013.0000 0.320
 7044.0000 0.519
 7074.0000 0.414
 7105.0000 0.557
 7135.0000 0.409
 7166.0000 0.380
 7197.0000 0.349
 7227.0000 0.326
 7258.0000 0.269
 7288.0000 0.207
 7319.0000 0.189
 7350.0000 0.182
 7378.0000 0.320
 7409.0000 0.519
 7439.0000 0.414
 7470.0000 0.557
 7500.0000 0.409
 7531.0000 0.380
 7562.0000 0.349
 7592.0000 0.326
 7623.0000 0.269
 7684.4167 0.152
 7711.4167 0.169
 7733.4167 0.154
 7746.4167 1.133
 7776.4167 0.538
 7789.4167 0.584
 7804.4167 0.362
 7818.4167 0.705
 7832.4167 0.512
 7847.4167 0.435
 7858.4167 0.659
 7873.4167 0.538
 7886.4167 0.335
 7900.4167 0.499
 7922.4167 0.324
 7942.4167 0.401
 7958.4167 0.359
 7970.4167 0.262
 7986.4167 0.240
 8020.4167 0.235
 8054.4167 0.207
 8085.4167 0.175
 8103.4167 0.143
 8112.4167 0.353
 8117.4167 0.683
 8138.4167 0.310
 8152.4167 0.730
 8166.4167 0.256
 8181.4167 0.445
 8195.4167 0.385
 8208.4167 0.394
 8222.4167 0.435
 8237.4167 0.426
 8251.4167 0.445
 8266.4167 0.683
 8292.4167 0.401
 8306.4167 0.324
 8320.4167 0.305
 8341.4167 0.324
 8356.4167 0.266
 8377.4167 0.215
 8434.4167 0.209
 8455.4167 0.176
 8470.4167 0.189
 8488.4167 0.211
 8504.4167 0.445
 8516.4167 0.341
 8530.4167 0.426
 8545.4167 0.359
 8558.4167 0.240
 8572.4167 0.409
 8587.4167 0.227
 8600.4167 0.310
 8622.4167 0.394
 8635.4167 0.288
 8649.4167 0.385
 8663.4167 0.385
 8677.4167 0.353
 8693.4167 0.280
 8727.4167 0.324
 8747.4167 0.256
 8775.4167 0.253
 8803.4167 0.246
 8832.4167 0.227
 8845.4167 0.418
 8859.4167 0.584
 8881.4167 0.620
 8902.4167 0.730
 8922.4167 0.259
 8936.4167 0.240
 8950.4167 0.225
 8964.4167 0.372
 8986.4167 0.817
 8999.4167 0.372
 9013.4167 0.280
 9035.4167 0.435
 9048.4167 0.209
 9062.4167 0.240
 9077.4167 0.335
 9118.4167 0.292
 9139.4167 0.211
 9167.4167 0.197
 9204.4167 0.129
 9216.4167 0.220
 9238.4167 0.759
 9244.4167 0.730
 9265.4167 0.315
 9287.4167 0.191
 9293.4167 0.235
 9315.4167 0.324
 9329.4167 0.401
 9359.4167 0.310
 9377.4167 0.359
 9393.4167 0.238
 9406.4167 0.409
 9420.4167 0.335
 9441.4167 0.347
 9454.4167 0.353
 9475.4167 0.310
 9510.4167 0.235
 9546.4167 0.205
 9560.4167 0.218
 9576.4167 0.280
 9587.4167 0.385
 9601.4167 0.584
 9636.4167 0.218
 9650.4167 0.262
 9658.4167 0.305
 9685.4167 0.730
 9701.4167 0.817
 9713.4167 0.445
 9734.4167 0.385
 9755.4167 0.525
 9769.4167 0.620
 9783.4167 0.620
 9818.4167 0.301
 9834.4167 0.191
 9868.4167 0.157
 9902.4167 0.134
 9923.4167 0.256
 9951.4167 0.246
 9960.4167 0.315
 9972.4167 0.499
 9994.4167 0.199
10003.4167 0.347
10014.4167 0.296
10029.4167 0.284
10052.4167 0.445
10070.4167 0.301
10079.4167 0.394
10091.4597 0.335
10113.4167 0.335
10133.4694 0.347
10149.5896 0.262
10161.4167 0.225
10169.4167 0.273
10210.4167 0.207
10247.4167 0.188
10273.4167 0.154
10287.4167 0.160
10302.4167 0.240
10322.4500 0.401
10337.3194 0.730
10358.4694 0.418
10371.4799 0.183
10395.4500 0.262
10406.4396 0.324
10413.4396 0.288
10427.4500 0.310
10451.4299 0.310
10469.4896 0.249
10478.4167 0.445
10490.4167 0.538
10505.4167 0.525
10546.4167 0.199
10567.4167 0.199
10610.5639 0.157
10646.5847 0.165
10667.5896 0.205
10679.4694 0.445
10687.4597 0.310
10700.4694 0.601
10714.4500 0.787
10728.4944 0.552
10751.4417 0.197
10770.4167 0.365
10785.4681 0.213
10800.4576 0.335
10812.4542 0.227
10829.4486 0.292
10841.4458 0.359
10854.4514 0.276
10871.4167 0.273
10892.4451 0.186
10913.4486 0.207
10933.4653 0.176
10966.4549 0.189
11001.5701 0.240
11023.4410 0.193
11043.4694 0.787
11064.4597 0.705
11078.4396 0.379
11087.4299 0.269
11106.4167 0.193
11114.4167 0.280
11115.4396 6.800
11128.4167 0.213
11164.4694 0.347
11184.4799 0.324
11221.6194 0.301
11227.4396 0.222
11239.4799 0.324
11276.7299 0.172
11289.4674 0.193
11312.4396 0.152
11332.5000 0.170
11375.5000 0.126
11389.5000 0.193
11400.5000 0.395
11438.5000 0.500
11451.5000 0.586
11466.5000 0.708
11491.5000 0.298
11500.5000 0.378
11512.5000 0.654
11528.5000 0.654
11547.5000 0.486
11562.5000 0.327
11576.5000 0.309
11591.5000 0.227
11606.5000 0.233
11618.5000 0.309
11639.5000 0.254
11652.5000 0.233
11675.5000 0.177
11715.5000 0.162
11732.5000 0.173
11757.5000 0.230
11764.5000 0.243
11772.5000 0.378
11780.5000 0.405
11785.5000 0.500
11792.5000 0.567
11799.5000 0.340
11807.5000 0.500
11814.5000 0.500
11820.5000 0.459
11830.5000 0.283
11834.5000 0.254
11844.5000 0.173
11849.5000 0.185
11869.5000 0.187
11885.5000 0.210
11900.5000 0.230
11911.5000 0.293
11925.5000 0.304
11941.5000 0.327
11954.5000 0.274
11981.5000 0.195
12003.5000 0.283
12025.5000 0.150
12037.5000 0.125
12098.0000 0.182
12126.0000 0.320
12157.0000 0.519
12187.0000 0.414
12218.0000 0.557
12248.0000 0.409
12279.0000 0.380
12310.0000 0.349
12340.0000 0.326
12371.0000 0.269
12401.0000 0.207
12432.0000 0.189
12463.0000 0.182
12491.0000 0.320
12522.0000 0.519
12552.0000 0.414
12583.0000 0.557
12613.0000 0.409
12644.0000 0.380
12675.0000 0.349
12705.0000 0.326
12736.0000 0.269
12766.0000 0.207
12797.0000 0.189
12828.0000 0.182
12857.0000 0.320
12888.0000 0.519
12918.0000 0.414
12949.0000 0.557
12979.0000 0.409
13010.0000 0.380
13041.0000 0.349
13071.0000 0.326
13102.0000 0.269
13132.0000 0.207
13163.0000 0.189
13194.0000 0.182
13222.0000 0.320
13253.0000 0.519
13283.0000 0.414
13314.0000 0.557
13344.0000 0.409
13375.0000 0.380
13406.0000 0.349
13436.0000 0.326
13467.0000 0.269
13497.0000 0.207
13528.0000 0.189
13559.0000 0.182
13587.0000 0.320
13618.0000 0.519
13648.0000 0.414
13679.0000 0.557
13709.0000 0.409
13740.0000 0.380
13771.0000 0.349
13801.0000 0.326
13832.0000 0.269
13862.0000 0.207
13893.0000 0.189
13924.0000 0.182
13952.0000 0.320
13983.0000 0.519
14013.0000 0.414
14044.0000 0.557
14102.0000 0.380
